SpectraSuite Data File
++++++++++++++++++++++++++++++++++++
Date: Wed Mar 10 15:34:56 EST 2021
User: student
Dark Spectrum Present: No
Reference Spectrum Present: No
Number of Sampled Component Spectra: 1
Spectrometers: USB4F09272
Integration Time (usec): 4000000 (USB4F09272)
Spectra Averaged: 1 (USB4F09272)
Boxcar Smoothing: 5 (USB4F09272)
Correct for Electrical Dark: No (USB4F09272)
Strobe/Lamp Enabled: No (USB4F09272)
Correct for Detector Non-linearity: No (USB4F09272)
Correct for Stray Light: No (USB4F09272)
Number of Pixels in Processed Spectrum: 3648
>>>>>Begin Processed Spectral Data<<<<<
175.94	1249.26
176.16	1249.26
176.38	1249.26
176.61	1243.12
176.83	1306.60
177.05	2672.23
177.27	2881.68
177.49	3117.75
177.71	3312.12
177.93	3557.32
178.15	3870.10
178.37	3756.53
178.59	3752.44
178.81	3733.63
179.03	3761.00
179.25	3755.04
179.47	3788.56
179.69	3749.09
179.91	3761.93
180.13	3786.51
180.35	3807.55
180.58	3688.02
180.80	3719.11
181.02	3636.08
181.24	3674.24
181.46	3705.71
181.68	3568.12
181.90	3546.71
182.12	3569.42
182.34	3510.40
182.56	3536.10
182.78	3421.60
183.00	3470.56
183.22	3506.87
183.44	3494.58
183.66	3480.06
183.88	3401.12
184.10	3368.91
184.32	3433.89
184.54	3456.04
184.76	3471.68
184.98	3430.91
185.20	3490.11
185.42	3548.76
185.64	3466.09
185.86	3529.95
186.08	3558.62
186.30	3628.63
186.52	3726.74
186.74	3820.58
186.96	3774.96
187.18	3807.73
187.40	3868.05
187.62	3943.64
187.84	3822.25
188.06	3830.07
188.28	3797.49
188.50	3793.21
188.72	3859.49
188.94	3771.99
189.16	3680.94
189.38	3705.71
189.60	3629.00
189.82	3522.13
190.04	3414.52
190.26	3405.77
190.48	3485.46
190.70	3521.58
190.92	3519.53
191.14	3440.59
191.36	3566.63
191.58	3492.90
191.80	3560.67
192.02	3584.13
192.24	3636.63
192.46	3669.03
192.68	3697.70
192.90	3621.18
193.12	3593.81
193.34	3594.74
193.56	3567.19
193.78	3415.83
194.00	3545.41
194.22	3502.77
194.44	3553.78
194.66	3563.65
194.88	3577.80
195.10	3595.30
195.32	3596.42
195.54	3632.72
195.76	3594.93
195.98	3666.42
196.20	3661.40
196.42	3506.49
196.64	3464.42
196.86	3403.35
197.08	3352.71
197.30	3313.61
197.51	3333.16
197.73	3348.43
197.95	3386.41
198.17	3511.15
198.39	3412.10
198.61	3429.79
198.83	3500.16
199.05	3489.74
199.27	3476.52
199.49	3571.10
199.71	3656.00
199.93	3591.58
200.15	3544.48
200.37	3475.78
200.59	3340.98
200.81	3356.43
201.03	3352.71
201.25	3338.38
201.46	3395.53
201.68	3402.05
201.90	3338.93
202.12	3324.41
202.34	3360.72
202.56	3456.79
202.78	3471.12
203.00	3490.67
203.22	3455.85
203.44	3499.23
203.66	3475.03
203.88	3427.74
204.10	3436.86
204.31	3475.03
204.53	3387.34
204.75	3382.69
204.97	3377.47
205.19	3424.20
205.41	3579.48
205.63	3734.19
205.85	3764.91
206.07	3893.93
206.29	4000.61
206.51	3992.79
206.73	4026.12
206.94	4020.35
207.16	3961.70
207.38	3910.69
207.60	3872.52
207.82	3714.08
208.04	3624.35
208.26	3567.19
208.48	3478.94
208.70	3421.22
208.91	3471.68
209.13	3421.41
209.35	3424.02
209.57	3439.47
209.79	3398.32
210.01	3391.81
210.23	3483.97
210.45	3580.04
210.67	3605.17
210.88	3565.14
211.10	3580.22
211.32	3584.32
211.54	3534.98
211.76	3563.47
211.98	3691.18
212.20	3712.04
212.42	3728.05
212.63	3613.55
212.85	3476.52
213.07	3463.86
213.29	3410.43
213.51	3369.84
213.73	3349.92
213.95	3387.15
214.17	3371.70
214.38	3254.78
214.60	3241.19
214.82	3185.89
215.04	3180.12
215.26	3200.79
215.48	3259.44
215.70	3396.28
215.91	3406.14
216.13	3443.94
216.35	3422.90
216.57	3443.19
216.79	3474.29
217.01	3586.37
217.23	3577.62
217.44	3613.18
217.66	3601.82
217.88	3541.87
218.10	3486.39
218.32	3459.39
218.54	3415.83
218.75	3429.23
218.97	3486.95
219.19	3495.32
219.41	3464.79
219.63	3513.76
219.85	3468.14
220.06	3461.63
220.28	3471.31
220.50	3505.38
220.72	3488.81
220.94	3527.53
221.16	3559.93
221.37	3581.71
221.59	3516.92
221.81	3517.29
222.03	3548.20
222.25	3681.32
222.46	3742.20
222.68	3717.99
222.90	3776.27
223.12	3807.92
223.34	3755.79
223.56	3728.98
223.77	3750.02
223.99	3774.96
224.21	3819.65
224.43	3771.24
224.65	3624.72
224.86	3591.02
225.08	3625.65
225.30	3470.00
225.52	3401.49
225.74	3415.27
225.95	3504.63
226.17	3509.10
226.39	3507.43
226.61	3446.73
226.83	3669.03
227.04	3721.53
227.26	3715.20
227.48	3692.86
227.70	3717.44
227.92	3856.70
228.13	3841.99
228.35	3751.88
228.57	3607.78
228.79	3618.02
229.00	3585.99
229.22	3393.48
229.44	3344.15
229.66	3322.74
229.88	3374.87
230.09	3399.81
230.31	3343.22
230.53	3343.59
230.75	3332.79
230.96	3442.26
231.18	3516.55
231.40	3516.18
231.62	3491.23
231.84	3574.82
232.05	3575.01
232.27	3555.46
232.49	3596.98
232.71	3565.70
232.92	3611.50
233.14	3550.43
233.36	3475.22
233.58	3378.96
233.79	3403.91
234.01	3403.17
234.23	3416.76
234.45	3418.06
234.66	3413.03
234.88	3343.03
235.10	3344.15
235.32	3290.15
235.53	3319.76
235.75	3360.53
235.97	3332.98
236.19	3428.11
236.40	3435.93
236.62	3436.68
236.84	3440.22
237.06	3488.25
237.27	3624.72
237.49	3570.54
237.71	3563.47
237.92	3580.59
238.14	3515.43
238.36	3522.51
238.58	3381.57
238.79	3373.94
239.01	3270.79
239.23	3319.20
239.45	3202.46
239.66	3129.30
239.88	3189.25
240.10	3219.22
240.31	3199.67
240.53	3202.28
240.75	3294.62
240.97	3316.96
241.18	3412.66
241.40	3412.10
241.62	3348.06
241.83	3353.27
242.05	3287.92
242.27	3298.72
242.49	3219.22
242.70	3287.73
242.92	3262.79
243.14	3253.48
243.35	3237.47
243.57	3170.26
243.79	3211.03
244.00	3318.27
244.22	3577.43
244.44	3578.73
244.66	3551.92
244.87	3661.02
245.09	3561.42
245.31	3590.83
245.52	3577.06
245.74	3561.60
245.96	3521.02
246.17	3481.55
246.39	3488.99
246.61	3265.21
246.82	3266.14
247.04	3310.63
247.26	3238.40
247.47	3288.67
247.69	3354.01
247.91	3321.62
248.13	3370.40
248.34	3375.61
248.56	3416.38
248.78	3409.68
248.99	3395.90
249.21	3386.78
249.43	3337.63
249.64	3339.49
249.86	3325.16
250.08	3354.76
250.29	3342.66
250.51	3300.95
250.73	3345.64
250.94	3405.21
251.16	3365.74
251.37	3440.22
251.59	3465.16
251.81	3662.89
252.02	3687.27
252.24	3744.99
252.46	3719.67
252.67	3688.39
252.89	3696.40
253.11	3655.07
253.32	3588.04
253.54	3512.08
253.76	3470.93
253.97	3505.01
254.19	3272.10
254.41	3260.18
254.62	3218.66
254.84	3109.19
255.05	3143.26
255.27	3160.57
255.49	3150.15
255.70	3121.66
255.92	3149.22
256.14	3136.56
256.35	3104.16
256.57	3156.48
256.79	3175.84
257.00	3295.37
257.22	3295.93
257.43	3325.90
257.65	3296.48
257.87	3301.70
258.08	3291.64
258.30	3287.73
258.51	3262.97
258.73	3287.73
258.95	3301.51
259.16	3272.65
259.38	3140.28
259.60	3131.16
259.81	3149.78
260.03	3148.66
260.24	3171.37
260.46	3178.26
260.68	3264.28
260.89	3295.37
261.11	3235.60
261.32	3217.55
261.54	3281.03
261.76	3338.93
261.97	3372.45
262.19	3323.67
262.40	3333.72
262.62	3301.33
262.84	3363.32
263.05	3357.37
263.27	3360.16
263.48	3373.56
263.70	3355.13
263.91	3332.60
264.13	3265.58
264.35	3271.54
264.56	3272.28
264.78	3259.25
264.99	3279.92
265.21	3318.08
265.43	3309.70
265.64	3250.13
265.86	3237.65
266.07	3291.83
266.29	3348.99
266.50	3354.95
266.72	3382.13
266.94	3436.49
267.15	3463.67
267.37	3454.92
267.58	3393.11
267.80	3297.04
268.01	3370.21
268.23	3342.10
268.44	3286.62
268.66	3190.74
268.88	3251.43
269.09	3256.46
269.31	3264.09
269.52	3232.07
269.74	3320.13
269.95	3383.24
270.17	3437.61
270.38	3438.17
270.60	3468.70
270.82	3472.61
271.03	3558.07
271.25	3574.08
271.46	3794.33
271.68	3769.19
271.89	3876.62
272.11	3857.07
272.32	3873.27
272.54	3839.76
272.75	3829.14
272.97	3819.09
273.18	3852.04
273.40	3747.41
273.62	3702.54
273.83	3431.46
274.05	3460.14
274.26	3405.59
274.48	3282.52
274.69	3306.54
274.91	3310.63
275.12	3309.33
275.34	3303.75
275.55	3335.21
275.77	3420.67
275.98	3372.07
276.20	3377.85
276.41	3404.47
276.63	3462.18
276.84	3478.01
277.06	3324.97
277.27	3319.01
277.49	3313.61
277.70	3317.52
277.92	3279.54
278.13	3267.81
278.35	3295.93
278.56	3337.63
278.78	3255.34
278.99	3311.94
279.21	3401.49
279.42	3489.37
279.64	3465.72
279.85	3467.58
280.07	3535.91
280.28	3588.60
280.50	3591.76
280.71	3676.10
280.93	3635.52
281.14	3655.25
281.36	3504.07
281.57	3508.17
281.79	3418.43
282.00	3454.55
282.22	3403.35
282.43	3372.07
282.65	3377.66
282.86	3287.18
283.08	3200.23
283.29	3254.78
283.51	3268.56
283.72	3289.78
283.94	3218.85
284.15	3273.77
284.36	3269.68
284.58	3308.40
284.79	3316.78
285.01	3260.18
285.22	3384.73
285.44	3376.73
285.65	3341.73
285.87	3319.76
286.08	3286.80
286.30	3301.70
286.51	3267.07
286.73	3306.72
286.94	3389.39
287.15	3408.94
287.37	3397.02
287.58	3262.97
287.80	3219.41
288.01	3187.01
288.23	3170.07
288.44	3169.32
288.66	3154.99
288.87	3151.64
289.08	3151.45
289.30	3071.95
289.51	3021.68
289.73	2975.51
289.94	3054.64
290.16	3063.95
290.37	3058.18
290.58	3228.16
290.80	3225.74
291.01	3244.73
291.23	3289.04
291.44	3243.42
291.66	3236.16
291.87	3258.13
292.08	3382.87
292.30	3332.23
292.51	3449.34
292.73	3513.57
292.94	3394.97
293.16	3459.02
293.37	3456.04
293.58	3524.55
293.80	3552.11
294.01	3656.74
294.23	3777.57
294.44	3708.13
294.65	3797.49
294.87	3717.44
295.08	3659.35
295.30	3621.55
295.51	3628.81
295.72	3653.20
295.94	3673.87
296.15	3671.64
296.37	3564.40
296.58	3492.35
296.79	3491.04
297.01	3407.26
297.22	3424.20
297.44	3465.54
297.65	3450.83
297.86	3475.96
298.08	3447.10
298.29	3336.14
298.51	3301.70
298.72	3267.81
298.93	3216.80
299.15	3332.42
299.36	3309.70
299.57	3337.07
299.79	3383.43
300.00	3381.01
300.22	3303.93
300.43	3275.26
300.64	3289.04
300.86	3400.00
301.07	3476.71
301.28	3473.17
301.50	3331.67
301.71	3424.02
301.93	3405.03
302.14	3332.42
302.35	3320.50
302.57	3322.92
302.78	3363.51
302.99	3362.39
303.21	3257.39
303.42	3247.15
303.63	3261.67
303.85	3330.56
304.06	3276.56
304.28	3332.60
304.49	3370.21
304.70	3433.14
304.92	3412.47
305.13	3489.37
305.34	3432.77
305.56	3402.23
305.77	3397.21
305.98	3402.42
306.20	3348.24
306.41	3342.10
306.62	3263.16
306.84	3334.47
307.05	3271.54
307.26	3354.95
307.48	3277.68
307.69	3374.31
307.90	3370.58
308.12	3306.54
308.33	3264.83
308.54	3255.53
308.76	3293.69
308.97	3267.44
309.18	3154.99
309.40	3118.31
309.61	3045.14
309.82	2997.85
310.04	2969.55
310.25	3030.99
310.46	3048.68
310.67	3007.16
310.89	3067.48
311.10	3086.66
311.31	3142.89
311.53	3204.33
311.74	3245.84
311.95	3275.45
312.17	3293.51
312.38	3256.64
312.59	3234.49
312.81	3255.34
313.02	3356.25
313.23	3333.72
313.44	3254.97
313.66	3204.51
313.87	3163.93
314.08	3165.97
314.30	3184.59
314.51	3162.25
314.72	3179.19
314.93	3270.79
315.15	3225.74
315.36	3226.48
315.57	3178.63
315.79	3190.55
316.00	3160.20
316.21	3120.92
316.42	3191.85
316.64	3192.22
316.85	3185.89
317.06	3220.71
317.28	3094.67
317.49	3110.49
317.70	3037.88
317.91	3026.15
318.13	3021.13
318.34	3068.04
318.55	3108.26
318.76	3091.50
318.98	3042.35
319.19	3125.76
319.40	3154.99
319.62	3175.28
319.83	3204.14
320.04	3218.85
320.25	3270.05
320.47	3332.98
320.68	3314.36
320.89	3274.89
321.10	3204.88
321.32	3211.40
321.53	3163.74
321.74	3098.39
321.95	3134.14
322.17	3130.41
322.38	3139.16
322.59	3094.85
322.80	3046.26
323.02	3180.68
323.23	3166.35
323.44	3256.27
323.65	3238.96
323.86	3297.23
324.08	3260.55
324.29	3213.82
324.50	3222.94
324.71	3293.69
324.93	3367.61
325.14	3381.57
325.35	3297.23
325.56	3352.52
325.78	3274.89
325.99	3284.01
326.20	3256.46
326.41	3351.41
326.62	3405.59
326.84	3390.32
327.05	3321.25
327.26	3232.44
327.47	3231.32
327.69	3201.16
327.90	3254.97
328.11	3335.95
328.32	3316.03
328.53	3299.28
328.75	3305.24
328.96	3282.89
329.17	3243.98
329.38	3201.53
329.59	3257.76
329.81	3285.31
330.02	3283.82
330.23	3305.98
330.44	3282.89
330.65	3309.89
330.87	3307.47
331.08	3207.68
331.29	3182.54
331.50	3225.18
331.71	3309.89
331.92	3272.28
332.14	3237.65
332.35	3319.38
332.56	3208.98
332.77	3160.39
332.98	3284.20
333.20	3264.28
333.41	3294.25
333.62	3269.49
333.83	3286.62
334.04	3255.34
334.25	3278.61
334.47	3237.28
334.68	3157.78
334.89	3174.35
335.10	3238.02
335.31	3072.14
335.52	3046.45
335.74	3097.65
335.95	3176.40
336.16	3143.82
336.37	3144.94
336.58	3122.59
336.79	3132.09
337.01	3127.25
337.22	3170.81
337.43	3061.15
337.64	3092.25
337.85	3110.68
338.06	3078.84
338.28	3043.65
338.49	3104.91
338.70	3107.51
338.91	3128.18
339.12	3151.64
339.33	3119.24
339.54	3146.05
339.76	3207.49
339.97	3217.92
340.18	3223.50
340.39	3204.51
340.60	3363.32
340.81	3333.16
341.02	3306.54
341.23	3311.01
341.45	3332.79
341.66	3349.92
341.87	3275.45
342.08	3224.99
342.29	3197.07
342.50	3228.53
342.71	3311.75
342.92	3160.39
343.14	3135.25
343.35	3161.69
343.56	3101.00
343.77	3088.34
343.98	3099.69
344.19	3185.52
344.40	3195.58
344.61	3234.30
344.82	3205.44
345.04	3122.59
345.25	3183.29
345.46	3214.75
345.67	3180.31
345.88	3198.55
346.09	3201.72
346.30	3252.36
346.51	3165.23
346.72	3238.96
346.94	3227.04
347.15	3261.67
347.36	3268.19
347.57	3279.17
347.78	3224.06
347.99	3225.74
348.20	3292.39
348.41	3336.14
348.62	3349.55
348.83	3400.75
349.04	3432.21
349.25	3411.92
349.47	3395.35
349.68	3407.45
349.89	3377.10
350.10	3454.74
350.31	3424.02
350.52	3400.00
350.73	3389.57
350.94	3351.97
351.15	3427.93
351.36	3308.21
351.57	3318.45
351.78	3286.25
351.99	3307.10
352.21	3253.66
352.42	3269.86
352.63	3318.08
352.84	3270.23
353.05	3290.15
353.26	3233.74
353.47	3087.41
353.68	3079.40
353.89	3086.10
354.10	3139.35
354.31	3092.06
354.52	3085.17
354.73	3190.36
354.94	3178.08
355.15	3234.86
355.36	3164.48
355.57	3270.23
355.78	3365.19
355.99	3408.94
356.20	3392.18
356.42	3418.80
356.63	3428.11
356.84	3423.83
357.05	3378.59
357.26	3353.08
357.47	3359.23
357.68	3382.69
357.89	3315.10
358.10	3210.84
358.31	3187.76
358.52	3204.88
358.73	3163.74
358.94	3188.31
359.15	3290.90
359.36	3177.70
359.57	3313.05
359.78	3303.19
359.99	3281.78
360.20	3355.88
360.41	3358.11
360.62	3333.72
360.83	3354.76
361.04	3371.52
361.25	3353.08
361.46	3300.39
361.67	3342.84
361.88	3248.82
362.09	3203.40
362.30	3197.44
362.51	3194.65
362.72	3258.69
362.93	3283.08
363.14	3242.31
363.35	3273.40
363.56	3359.97
363.77	3304.86
363.98	3243.61
364.19	3347.87
364.40	3426.62
364.61	3524.55
364.82	3440.77
365.03	3559.37
365.24	3642.59
365.45	3749.83
365.66	3648.74
365.87	3552.11
366.08	3629.75
366.29	3731.21
366.50	3637.01
366.71	3566.07
366.92	3538.89
367.13	3622.11
367.34	3461.25
367.55	3420.85
367.76	3383.80
367.97	3404.28
368.18	3631.98
368.39	3559.93
368.60	3458.65
368.81	3443.94
369.01	3509.47
369.22	3497.74
369.43	3455.30
369.64	3433.33
369.85	3423.65
370.06	3386.97
370.27	3395.72
370.48	3193.34
370.69	3184.22
370.90	3240.63
371.11	3341.17
371.32	3261.67
371.53	3184.78
371.74	3207.12
371.95	3321.25
372.16	3274.14
372.37	3233.18
372.58	3400.19
372.79	3391.44
372.99	3369.47
373.20	3388.27
373.41	3374.31
373.62	3515.62
373.83	3522.69
374.04	3442.26
374.25	3470.56
374.46	3498.68
374.67	3485.46
374.88	3297.42
375.09	3312.87
375.30	3415.45
375.51	3349.36
375.72	3251.99
375.92	3144.75
376.13	3170.63
376.34	3316.78
376.55	3256.08
376.76	3258.32
376.97	3424.95
377.18	3467.02
377.39	3515.43
377.60	3499.98
377.81	3529.77
378.02	3669.03
378.22	3636.82
378.43	3633.28
378.64	3526.04
378.85	3505.38
379.06	3514.50
379.27	3415.64
379.48	3551.74
379.69	3502.59
379.90	3550.62
380.11	3507.05
380.31	3493.09
380.52	3513.38
380.73	3549.69
380.94	3557.88
381.15	3577.06
381.36	3584.13
381.57	3583.76
381.78	3428.67
381.99	3412.10
382.19	3346.57
382.40	3342.10
382.61	3261.67
382.82	3316.22
383.03	3330.37
383.24	3320.32
383.45	3285.87
383.65	3283.27
383.86	3217.36
384.07	3212.89
384.28	3209.35
384.49	3274.52
384.70	3332.05
384.91	3278.05
385.12	3220.15
385.32	3211.03
385.53	3173.23
385.74	3154.80
385.95	3169.70
386.16	3218.10
386.37	3215.31
386.58	3261.30
386.78	3164.67
386.99	3198.18
387.20	3220.52
387.41	3249.57
387.62	3228.72
387.83	3280.47
388.03	3292.58
388.24	3298.72
388.45	3311.94
388.66	3307.66
388.87	3253.66
389.08	3270.61
389.28	3227.04
389.49	3273.96
389.70	3274.70
389.91	3301.88
390.12	3378.78
390.33	3411.54
390.53	3401.12
390.74	3450.45
390.95	3556.58
391.16	3575.01
391.37	3612.24
391.58	3643.89
391.78	3602.56
391.99	3612.80
392.20	3540.94
392.41	3465.54
392.62	3468.14
392.82	3504.26
393.03	3455.67
393.24	3374.12
393.45	3409.68
393.66	3395.90
393.87	3485.83
394.07	3596.42
394.28	3604.61
394.49	3735.68
394.70	3753.74
394.91	3738.10
395.11	3777.94
395.32	3818.72
395.53	3948.30
395.74	3933.03
395.94	3952.77
396.15	3884.81
396.36	3813.50
396.57	3809.22
396.78	3753.18
396.98	3811.27
397.19	3882.76
397.40	3850.55
397.61	3851.86
397.82	3808.29
398.02	3835.66
398.23	3832.31
398.44	3868.61
398.65	3969.71
398.85	4049.21
399.06	4158.12
399.27	4234.27
399.48	4252.33
399.69	4266.11
399.89	4282.49
400.10	4283.05
400.31	4320.66
400.52	4340.39
400.72	4258.47
400.93	4222.73
401.14	4266.29
401.35	4184.00
401.55	4097.99
401.76	4092.03
401.97	4097.61
402.18	4189.59
402.38	4134.85
402.59	4195.73
402.80	4233.90
403.01	4273.92
403.21	4337.78
403.42	4430.31
403.63	4492.13
403.84	4482.82
404.04	4437.76
404.25	4537.37
404.46	4438.13
404.67	4459.36
404.87	4383.77
405.08	4369.81
405.29	4488.03
405.50	4426.78
405.70	4251.21
405.91	4316.75
406.12	4315.07
406.32	4302.97
406.53	4193.31
406.74	4180.65
406.95	4195.73
407.15	4209.51
407.36	4163.15
407.57	4103.76
407.77	4061.31
407.98	4016.63
408.19	3856.70
408.40	3869.36
408.60	4014.39
408.81	3979.20
409.02	3967.10
409.22	3917.58
409.43	3872.34
409.64	3855.95
409.85	3747.78
410.05	3739.78
410.26	3863.96
410.47	3857.63
410.67	3787.44
410.88	3676.48
411.09	3699.93
411.29	3689.88
411.50	3733.82
411.71	3733.63
411.92	3753.93
412.12	3786.14
412.33	3851.11
412.54	3775.90
412.74	3801.77
412.95	3807.36
413.16	3871.41
413.36	3846.64
413.57	3929.87
413.78	3934.52
413.98	3951.09
414.19	3963.38
414.40	3939.92
414.60	3816.86
414.81	3753.37
415.02	3738.85
415.22	3795.44
415.43	3670.70
415.64	3674.24
415.84	3650.23
416.05	3583.01
416.26	3488.06
416.46	3441.89
416.67	3425.13
416.88	3472.42
417.08	3596.05
417.29	3535.35
417.50	3448.78
417.70	3489.37
417.91	3464.79
418.12	3404.65
418.32	3445.43
418.53	3497.37
418.74	3487.69
418.94	3446.73
419.15	3421.97
419.36	3328.51
419.56	3334.09
419.77	3415.08
419.97	3512.45
420.18	3586.74
420.39	3598.84
420.59	3620.99
420.80	3653.58
421.01	3646.50
421.21	3781.85
421.42	3841.99
421.63	3853.35
421.83	3936.01
422.04	3853.72
422.24	3751.32
422.45	3766.77
422.66	3752.06
422.86	3709.80
423.07	3642.96
423.28	3835.66
423.48	3710.73
423.69	3664.37
423.89	3700.31
424.10	3610.20
424.31	3683.92
424.51	3729.91
424.72	3622.86
424.92	3633.10
425.13	3630.86
425.34	3610.94
425.54	3435.37
425.75	3454.92
425.95	3440.22
426.16	3329.44
426.37	3313.61
426.57	3287.36
426.78	3248.82
426.98	3235.23
427.19	3158.71
427.40	3109.75
427.60	3168.58
427.81	3192.78
428.01	3224.06
428.22	3207.12
428.43	3237.09
428.63	3263.35
428.84	3206.19
429.04	3290.15
429.25	3357.92
429.45	3412.66
429.66	3436.86
429.87	3438.91
430.07	3386.04
430.28	3311.57
430.48	3306.91
430.69	3312.87
430.89	3320.69
431.10	3338.19
431.31	3166.53
431.51	3198.93
431.72	3208.61
431.92	3176.59
432.13	3156.29
432.33	3234.67
432.54	3362.76
432.74	3331.67
432.95	3386.97
433.16	3349.73
433.36	3343.59
433.57	3527.35
433.77	3446.36
433.98	3557.69
434.18	3639.61
434.39	3654.88
434.59	3656.00
434.80	3572.77
435.01	3650.41
435.21	3579.29
435.42	3612.80
435.62	3666.79
435.83	3546.34
436.03	3535.35
436.24	3421.97
436.44	3354.01
436.65	3353.08
436.85	3291.64
437.06	3307.10
437.26	3241.38
437.47	3291.64
437.67	3403.35
437.88	3352.71
438.08	3320.13
438.29	3335.95
438.50	3391.81
438.70	3375.98
438.91	3366.49
439.11	3340.24
439.32	3300.21
439.52	3369.47
439.73	3326.65
439.93	3219.78
440.14	3315.10
440.34	3370.96
440.55	3354.20
440.75	3276.56
440.96	3272.65
441.16	3242.12
441.37	3301.70
441.57	3310.08
441.78	3281.96
441.98	3305.24
442.19	3286.06
442.39	3170.26
442.60	3936.38
442.80	3911.25
443.01	4049.02
443.21	4065.59
443.42	4080.48
443.62	4060.94
443.83	4858.71
444.03	4833.39
444.23	4865.60
444.44	4890.74
444.64	4944.73
444.85	4175.06
445.05	4261.64
445.26	4235.39
445.46	4248.05
445.67	4239.30
445.87	4204.29
446.08	3455.85
446.28	3446.92
446.49	3447.10
446.69	3431.28
446.90	3434.82
447.10	3386.60
447.31	3328.51
447.51	3197.07
447.71	3217.55
447.92	3247.52
448.12	3297.60
448.33	3302.63
448.53	3312.68
448.74	3244.91
448.94	3277.31
449.15	3273.03
449.35	3333.35
449.56	3342.29
449.76	3372.26
449.96	3427.93
450.17	3450.08
450.37	3408.56
450.58	3387.71
450.78	3377.85
